SLAC Magnetic Measurements
Date: 11-11-2021
Time: 14:53:27

Project: LCLS-II
Magnet Type: Quad
Magnet Name: 4194
Serial Number: 
Run Number: 4
Measurement Device: 1DQB26
Operator: sda
Comment: Minor hysteresis loop 1. 0 to 50% of Max then up to 60%  down to 40% and back to 50% in 1% of Max steps
Test Currents for MAIN (A): 
      0.00     82.50     84.15     85.80     87.45     89.10     90.75     92.40     94.05     95.70     97.35     99.00     97.35     95.70     94.05
     92.40     90.75     89.10     87.45     85.80     84.15     82.50     80.85     79.20     77.55     75.90     74.25     72.60     70.95     69.30
     67.65     66.00     67.65     69.30     70.95     72.60     74.25     75.90     77.55     79.20     80.85     82.50



                                 Integrated Gradient (Quadrupole) 

     MAIN   +/- sigma         BL         sigBL           TF        sigTF         THsp       sigTHsp   
            (A)                     (T)                       (T/A)                     (deg)      
 ------------+----------  -----------+-----------   ------------+------------  -----------+---------
      0.0001     0.0000     0.034289    0.000007       0.000000    0.000000     45.5168    0.0095  
     82.4687     0.0023     2.617258    0.000030       0.031736    0.000001     45.5281    0.0002  
     83.9766     0.0006     2.665121    0.000017       0.031736    0.000000     45.5281    0.0002  
     85.6339     0.0004     2.717721    0.000021       0.031736    0.000000     45.5282    0.0001  
     87.2651     0.0003     2.769470    0.000007       0.031736    0.000000     45.5283    0.0001  
     88.8485     0.0002     2.819687    0.000017       0.031736    0.000000     45.5283    0.0001  
     90.5056     0.0005     2.872229    0.000016       0.031735    0.000000     45.5283    0.0001  
     92.1584     0.0003     2.924640    0.000013       0.031735    0.000000     45.5284    0.0001  
     93.8186     0.0006     2.977261    0.000014       0.031734    0.000000     45.5285    0.0001  
     95.4785     0.0007     3.029775    0.000019       0.031733    0.000000     45.5286    0.0002  
     97.1058     0.0003     3.081322    0.000005       0.031732    0.000000     45.5288    0.0001  
     98.7659     0.0003     3.134008    0.000013       0.031732    0.000000     45.5289    0.0001  
     97.4838     0.0003     3.097786    0.000006       0.031777    0.000000     45.5291    0.0001  
     95.8524     0.0003     3.049974    0.000004       0.031820    0.000000     45.5291    0.0001  
     94.1974     0.0003     3.000522    0.000005       0.031854    0.000000     45.5291    0.0001  
     92.5370     0.0004     2.950344    0.000005       0.031883    0.000000     45.5291    0.0001  
     90.8835     0.0003     2.900011    0.000006       0.031909    0.000000     45.5291    0.0000  
     89.2273     0.0002     2.849319    0.000001       0.031933    0.000000     45.5291    0.0001  
     87.5699     0.0005     2.798365    0.000004       0.031956    0.000000     45.5293    0.0002  
     85.9374     0.0002     2.747992    0.000004       0.031977    0.000000     45.5293    0.0000  
     84.2834     0.0001     2.696801    0.000005       0.031997    0.000000     45.5294    0.0001  
     82.6227     0.0006     2.645260    0.000010       0.032016    0.000000     45.5293    0.0001  
     81.0506     0.0002     2.596352    0.000003       0.032034    0.000000     45.5295    0.0001  
     79.3935     0.0002     2.544688    0.000009       0.032052    0.000000     45.5294    0.0001  
     77.7357     0.0002     2.492886    0.000007       0.032069    0.000000     45.5291    0.0002  
     76.0867     0.0002     2.441279    0.000008       0.032086    0.000000     45.5292    0.0002  
     74.4286     0.0002     2.389300    0.000005       0.032102    0.000000     45.5292    0.0001  
     72.7682     0.0002     2.337179    0.000010       0.032118    0.000000     45.5292    0.0001  
     71.1164     0.0001     2.285249    0.000003       0.032134    0.000000     45.5293    0.0001  
     69.4558     0.0004     2.232954    0.000010       0.032149    0.000000     45.5290    0.0002  
     67.8039     0.0004     2.180619    0.000509       0.032161    0.000008     45.5299    0.0013  
     66.1691     0.0004     2.129342    0.000005       0.032180    0.000000     45.5289    0.0001  
     67.4260     0.0004     2.164912    0.000007       0.032108    0.000000     45.5292    0.0001  
     69.0784     0.0001     2.213415    0.000005       0.032042    0.000000     45.5294    0.0001  
     70.7387     0.0002     2.263155    0.000005       0.031993    0.000000     45.5295    0.0002  
     72.3927     0.0002     2.313277    0.000008       0.031955    0.000000     45.5296    0.0002  
     74.0487     0.0003     2.363822    0.000011       0.031923    0.000000     45.5295    0.0001  
     75.7092     0.0002     2.414793    0.000014       0.031896    0.000000     45.5297    0.0001  
     77.3614     0.0002     2.465704    0.000008       0.031873    0.000000     45.5299    0.0001  
     79.0123     0.0003     2.516750    0.000008       0.031853    0.000000     45.5300    0.0002  
     80.6720     0.0002     2.568192    0.000009       0.031835    0.000000     45.5302    0.0000  
     82.3224     0.0002     2.619462    0.000012       0.031820    0.000000     45.5301    0.0000  
