        H             B            I       
      (A/m)          (T)          (A)      
  -------------  -----------  -----------  
        -2.3560     0.000112    -0.002581
         3.1414     0.028398     0.002987
         7.8535     0.062483     0.008766
        10.9949     0.098316     0.014376
        10.9949     0.118765     0.017180
        14.1363     0.163601     0.023007
        16.4923     0.210629     0.028648
        17.2777     0.262026     0.034448
        21.2044     0.314888     0.040095
        23.5605     0.376883     0.046673
        25.1312     0.430408     0.052281
        27.4872     0.488364     0.058079
        29.8433     0.544112     0.063731
        33.7700     0.603379     0.069565
        36.9114     0.660652     0.075210
        40.8382     0.718653     0.081044
        47.1210     0.774833     0.086721
        55.7598     0.878157     0.097105
        59.6866     0.928434     0.102700
        63.6133     0.954619     0.105700
        76.9643     1.057354     0.117179
        80.8910     1.078600     0.119965
        89.5299     1.123100     0.125595
        98.1687     1.167626     0.131425
       102.8808     1.187293     0.134267
       114.6611     1.234998     0.140862
       125.6560     1.271931     0.146485
       130.3681     1.288469     0.149274
       146.0751     1.324511     0.155090
       159.4260     1.357041     0.160753
       168.8502     1.372449     0.163822
       186.9133     1.401579     0.169446
       206.5470     1.428654     0.175276
       216.7566     1.439609     0.178082
       241.8878     1.462270     0.183802
       310.2132     1.503944     0.196070
       389.5336     1.531465     0.207473
       459.4297     1.546878     0.216127
       537.9647     1.559327     0.224778
       658.1233     1.573384     0.237028
       744.5118     1.581094     0.245430
       832.4710     1.588445     0.254061
       956.5563     1.597109     0.265583
      1047.6569     1.602597     0.274221
      1192.9466     1.610843     0.287505
      1314.6759     1.616742     0.298896
      1404.9911     1.621088     0.307331
      1497.6624     1.625408     0.316007
      1622.5331     1.630707     0.327516
      1723.8432     1.634982     0.336903
      1817.2999     1.638931     0.345552
      1939.0291     1.643710     0.357094
      2027.7736     1.647241     0.365576
      2122.8010     1.650649     0.374289
      2270.4468     1.656138     0.387910
      2359.9767     1.659414     0.396478
      3440.6183     1.694540     0.496248
      4520.4745     1.725053     0.598335
      5575.9849     1.751766     0.698198
      6587.5156     1.775714     0.794780
      7661.8744     1.799438     0.897573
      8689.8975     1.820351     0.996558
      9725.7742     1.840211     1.096518
     10774.2164     1.859092     1.197755
     11800.6688     1.877118     1.297542
     12818.4824     1.893768     1.396611
     13870.8513     1.910195     1.499624
     14844.6853     1.924724     1.595266
     15864.0696     1.939516     1.695125
     16899.9462     1.954013     1.797153
     17913.8330     1.967432     1.897110
     18894.7352     1.980003     1.994507
     23964.1693     2.037102     2.499463
     28882.0309     2.082424     3.001664
     33583.1358     2.116957     3.496216
     38168.7944     2.142198     3.998038
     47057.3855     2.172129     4.999042
     56037.8625     2.190569     6.002031
     64768.5982     2.205310     6.994146
     73171.8430     2.218066     7.997048
     80471.6711     2.228608     8.998328
     86228.2864     2.236741     9.997490
     94496.4510     2.248055    12.001352