        H             B            I       
      (A/m)          (T)          (A)      
  -------------  -----------  -----------  
       -10.2095     0.000084    -0.002636
         1.5707     0.016867     0.002936
        11.7802     0.043917     0.008740
        14.9216     0.076659     0.014346
        17.2777     0.094783     0.017140
        21.9898     0.136346     0.022984
        29.0579     0.228621     0.034406
        32.1993     0.277312     0.040063
        36.1261     0.335631     0.046628
        36.9114     0.387013     0.052256
        40.8382     0.441299     0.058051
        46.3356     0.494757     0.063688
        50.2624     0.550954     0.069539
        54.9745     0.604885     0.075196
        59.6866     0.660181     0.081016
        66.7547     0.714115     0.086712
        80.8910     0.810752     0.097065
        90.3152     0.859402     0.102669
        91.8859     0.884593     0.105670
       113.0904     0.982832     0.117147
       118.5878     1.003266     0.119935
       126.4413     1.046548     0.125569
       139.0069     1.089749     0.131376
       144.5044     1.109150     0.134229
       161.7821     1.155753     0.140825
       175.1330     1.192637     0.146431
       182.2012     1.209453     0.149239
       197.1228     1.245666     0.155055
       212.8298     1.278593     0.160728
       221.4687     1.294773     0.163785
       239.5317     1.324852     0.169428
       260.7362     1.353571     0.175257
       272.5164     1.365938     0.178071
       294.5062     1.391323     0.183768
       351.8368     1.440029     0.196025
       416.2355     1.476171     0.207439
       473.5660     1.498469     0.216092
       533.2526     1.517654     0.224725
       630.6360     1.540563     0.236994
       700.5322     1.553279     0.245396
       776.7111     1.564895     0.254041
       881.1627     1.578519     0.265550
       961.2684     1.587215     0.274209
      1087.7097     1.599310     0.287476
      1199.2294     1.608442     0.298855
      1282.4765     1.614500     0.307306
      1366.5090     1.620316     0.315982
      1484.3115     1.627572     0.327471
      1576.1974     1.633026     0.336876
      1665.7273     1.637930     0.345526
      1781.1738     1.644049     0.357071
      1867.5623     1.648230     0.365553
      1956.3068     1.652454     0.374258
      2099.2405     1.658895     0.387867
      2184.8436     1.662608     0.396460
      3241.9247     1.702043     0.496211
      4311.5714     1.734812     0.598309
      5362.3697     1.762884     0.698176
      6375.4711     1.787511     0.794784
      7452.1860     1.811632     0.897566
      8482.5651     1.833323     0.996550
      9522.3685     1.853789     1.096513
     10576.3082     1.873256     1.197734
     11607.4727     1.891421     1.297523
     12631.5691     1.908572     1.396605
     13691.7916     1.925520     1.499617
     14669.5523     1.940388     1.595282
     15691.2926     1.955337     1.695137
     16735.8081     1.969797     1.797172
     17754.4070     1.983388     1.897129
     18740.8066     1.995959     1.994539
     23830.6598     2.053874     2.499498
     28749.3067     2.099539     3.001706
     33422.9245     2.133794     3.496301
     37946.5403     2.158528     3.998124
     46672.5640     2.188056     4.999165
     55536.0238     2.206629     6.002156
     64205.5023     2.221445     6.994276
     72563.9821     2.234296     7.997164
     79839.4643     2.244923     8.998475
     85655.7663     2.253131     9.997639
     93944.3500     2.264426    12.001468