        H             B            I       
      (A/m)          (T)          (A)      
  -------------  -----------  -----------  
       -92.6713    -1.387309    -0.006880
       -47.9063    -1.311258     0.033962
       -15.7070    -1.183857     0.082237
         6.2828    -1.009307     0.132380
        18.8484    -0.830644     0.173518
        25.9165    -0.491553     0.232615
        27.4872    -0.360756     0.253306
        29.0579    -0.158691     0.280952
        28.2726    -0.112973     0.287670
        30.6286    -0.006537     0.301202
        30.6286     0.110587     0.315203
        31.4140     0.160944     0.322016
        34.5554     0.283969     0.337882
        34.5554     0.378671     0.351382
        36.1261     0.420205     0.358116
        38.4821     0.512337     0.372072
        41.6235     0.594930     0.385721
        43.1942     0.634683     0.393025
        47.9063     0.710786     0.406600
        51.8331     0.783895     0.420593
        54.1891     0.814549     0.427345
        58.1159     0.879329     0.441082
        71.4668     1.008571     0.470357
        87.1738     1.109343     0.497734
       101.3101     1.174307     0.518490
       119.3732     1.232202     0.539281
       152.3579     1.304494     0.568749
       180.6305     1.344441     0.588930
       219.1126     1.379252     0.609715
       283.5113     1.417163     0.637359
       343.9833     1.438454     0.658151
       453.1469     1.463009     0.689807
       560.7399     1.478520     0.717158
       643.2016     1.487705     0.737436
       732.7315     1.495892     0.758268
       853.6754     1.505463     0.785904
       953.4149     1.512282     0.808494
      1045.3008     1.517966     0.829269
      1170.9568     1.525090     0.856966
      1262.8428     1.529842     0.877327
      1357.8701     1.534543     0.898274
      1507.0866     1.541379     0.930855
      1600.5433     1.545525     0.951467
      2704.7453     1.587375     1.190870
      3806.5914     1.621871     1.435912
      4881.7355     1.651416     1.675646
      5912.1147     1.677167     1.907635
      7003.7511     1.702211     2.154316
      8046.6959     1.724489     2.391928
      9097.4942     1.745605     2.631797
     10160.0727     1.765645     2.874899
     11203.0175     1.784186     3.114367
     12233.3966     1.801612     3.352215
     13303.8287     1.818883     3.599403
     14291.0136     1.834041     3.829167
     15319.8221     1.849254     4.068824
     16368.2643     1.864078     4.313704
     17395.5021     1.877928     4.553628
     18391.3258     1.890931     4.787526
     23516.5198     1.950015     5.999399
     28469.7221     1.996919     7.204814
     33174.7539     2.032527     8.392063
     37722.7156     2.058668     9.596584
     46454.2367     2.089872    11.999251
     55317.6965     2.108761    14.406759
     63994.2431     2.123656    16.787957
     72348.7962     2.136629    19.194916
     79687.8918     2.147287    21.598261
     85483.7746     2.155515    23.996368
     93733.8762     2.166790    28.805602
     86752.9002     2.157263    23.995271
     81637.9158     2.150046    21.597031
     74606.6774     2.139967    19.193481
     66246.6269     2.127185    16.786464
     57541.0223     2.112712    14.405262
     48617.8759     2.095046    11.997954
     39847.0873     2.068390     9.595444
     30766.0855     2.015673     7.203880
     20814.1305     1.920659     4.786823
     15747.0525     1.855820     3.598838
     10519.7630     1.772354     2.391504
      9491.7399     1.753338     2.153917
      8418.9518     1.732513     1.907281
      7408.2064     1.711633     1.675316
      6354.2667     1.688262     1.435656
      5273.6251     1.662561     1.190651
      4210.2612     1.634969     0.951248
      3171.2432     1.604998     0.716982
      2059.1876     1.568449     0.470161
      1929.6049     1.563887     0.440930
      1840.0750     1.560644     0.420450
      1717.5604     1.556150     0.392889
      1624.1038     1.552657     0.371958
      1531.4325     1.549201     0.351278
      1398.7083     1.543959     0.321955
      1305.2517     1.540102     0.301136
      1213.3657     1.536171     0.280940
      1087.7097     1.530586     0.253358
       996.6091     1.526203     0.232697
       852.8901     1.518950     0.201202
       728.0194     1.512108     0.173602
       635.3481     1.506353     0.152732
       541.8915     1.500471     0.132453
       421.7329     1.490921     0.105079
       324.3495     1.481133     0.082377
       245.0292     1.469398     0.061725
       160.2114     1.445290     0.034209
       113.0904     1.419441     0.013504
        82.4617     1.386994    -0.006551
        59.6866     1.347340    -0.026754
        42.4089     1.299133    -0.047655
        25.1312     1.223311    -0.075383
        14.9216     1.159823    -0.096197
         7.8535     1.115624    -0.109745
         5.4974     1.085215    -0.118833
        -0.7853     1.034488    -0.132466
        -5.4974     0.978495    -0.146452
        -7.8535     0.951869    -0.153242
       -12.5656     0.891353    -0.166828
       -17.2777     0.787248    -0.187711
       -20.4191     0.631992    -0.215188
       -22.7751     0.424432    -0.247172
       -22.7751     0.278606    -0.268042
       -24.3458     0.058915    -0.295718
       -25.9165    -0.112462    -0.316053
       -28.2726    -0.271712    -0.336777
       -32.9847    -0.479443    -0.366109
       -38.4821    -0.604842    -0.386812
       -43.9796    -0.720538    -0.407573
       -54.1891    -0.860100    -0.435013
       -54.9745    -0.886692    -0.441742
       -61.2573    -0.943645    -0.455205
       -72.2522    -1.036167    -0.478157
       -76.1789    -1.058366    -0.484994
      -111.5197    -1.218234    -0.533540
      -172.7770    -1.336139    -0.583726
      -336.9151    -1.434772    -0.652472
      -640.8456    -1.486285    -0.732581
     -1042.1594    -1.516943    -0.823694
     -1350.0166    -1.533503    -0.892197
     -1687.7171    -1.548872    -0.966486
     -2785.6364    -1.589577    -1.206877
     -3880.4143    -1.623575    -1.451734
     -4951.6316    -1.652696    -1.691605
     -5977.2987    -1.678100    -1.923007
     -7072.8619    -1.703257    -2.170639
     -8115.0213    -1.725517    -2.408366
    -18512.2697    -1.892654    -4.804540
    -37783.1875    -2.059054    -9.615017
    -55374.2417    -2.108822   -14.425178
    -72412.4096    -2.136556   -19.216059
    -85515.9740    -2.155414   -24.017680
    -93750.3685    -2.166790   -28.827952
    -86780.3874    -2.157236   -24.017068
    -74684.4271    -2.139939   -19.215397
    -57622.6987    -2.112867   -14.424583
    -39918.5541    -2.068635    -9.614667
    -20880.8853    -1.921624    -4.804446
    -10575.5228    -1.773732    -2.408405
     -8458.2193    -1.733717    -1.923025
     -6393.5342    -1.689524    -1.451724
     -4243.2459    -1.636369    -0.966445
     -3215.2228    -1.606992    -0.732550
     -2106.3086    -1.571051    -0.484916
     -1976.7259    -1.566603    -0.455086
     -1887.1960    -1.563385    -0.434925
     -1765.4668    -1.559159    -0.407500
     -1673.5808    -1.555679    -0.386709
     -1580.9095    -1.552168    -0.366036
     -1450.5414    -1.547032    -0.336667
     -1355.5141    -1.543374    -0.315918
     -1265.9842    -1.539545    -0.295573
     -1141.1135    -1.534129    -0.267955
     -1046.8715    -1.529906    -0.247065
      -903.1525    -1.522978    -0.215033
      -779.0672    -1.516357    -0.187585
      -684.0398    -1.511113    -0.166708
      -592.9392    -1.505396    -0.146377
      -469.6393    -1.496653    -0.118703
      -372.2559    -1.488069    -0.096032
      -287.4381    -1.478241    -0.075267
      -189.2693    -1.458605    -0.047543
      -132.7241    -1.436557    -0.026624
       -94.2420    -1.408082    -0.006424