        H             B            I       
      (A/m)          (T)          (A)      
  -------------  -----------  -----------  
        -4.7121     0.000020    -0.002647
         3.1414     0.019305     0.002924
         8.6388     0.047734     0.008724
        11.7802     0.082814     0.014339
        13.3509     0.102073     0.017152
        17.2777     0.145731     0.022967
        20.4191     0.244237     0.034409
        21.2044     0.296117     0.040071
        23.5605     0.357277     0.046645
        27.4872     0.411925     0.052265
        29.8433     0.469385     0.058071
        32.1993     0.525877     0.063705
        35.3407     0.585611     0.069572
        36.9114     0.642437     0.075192
        42.4089     0.701006     0.081031
        46.3356     0.758092     0.086706
        55.7598     0.860449     0.097040
        62.8280     0.911589     0.102651
        65.1840     0.937948     0.105664
        80.1057     1.041213     0.117132
        84.8178     1.062297     0.119932
        93.4566     1.107647     0.125570
       101.3101     1.152404     0.131388
       106.0222     1.172420     0.134247
       119.3732     1.220506     0.140846
       130.3681     1.258279     0.146453
       135.8655     1.275317     0.149259
       150.0018     1.311682     0.155069
       165.7088     1.344340     0.160734
       174.3477     1.359852     0.163769
       191.6254     1.389034     0.169429
       212.8298     1.416477     0.175251
       222.2540     1.427926     0.178079
       247.3852     1.451007     0.183792
       314.9253     1.493122     0.196011
       395.8164     1.521415     0.207443
       465.7125     1.537169     0.216087
       544.2475     1.549803     0.224743
       668.3328     1.564216     0.236999
       753.9360     1.571981     0.245403
       845.8219     1.578994     0.254051
       969.1219     1.587351     0.265575
      1060.2225     1.592968     0.274226
      1206.2976     1.600915     0.287459
      1330.3829     1.607249     0.298862
      1420.6981     1.611421     0.307310
      1514.1548     1.615533     0.315980
      1638.2401     1.620814     0.327477
      1742.6916     1.624939     0.336887
      1834.5776     1.628700     0.345530
      1959.4482     1.633640     0.357072
      2049.7634     1.637081     0.365555
      2144.7908     1.640472     0.374279
      2290.8659     1.645860     0.387894
      2381.1811     1.649001     0.396474
      3466.5348     1.683848     0.496226
      4550.3178     1.714523     0.598324
      5607.3989     1.741272     0.698191
      6622.0710     1.764968     0.794826
      7698.0005     1.788441     0.897604
      8729.1650     1.809564     0.996592
      9765.8270     1.829476     1.096544
     10817.4106     1.848595     1.197792
     11844.6484     1.866385     1.297590
     12862.4620     1.883178     1.396690
     13917.1870     1.899800     1.499673
     14892.5917     1.914492     1.595373
     15912.7613     1.929140     1.695231
     16949.4233     1.943369     1.797267
     17961.7394     1.956748     1.897228
     18944.9976     1.969143     1.994643
     24012.8610     2.026381     2.499611
     28932.2933     2.071615     3.001842
     33635.7543     2.106140     3.496467
     38222.1982     2.131437     3.998310
     47101.3651     2.161511     4.999382
     56059.0669     2.180032     6.002418
     64769.3836     2.194660     6.994551
     73145.9264     2.207423     7.997416
     80430.0475     2.218054     8.998792
     86257.3444     2.226313     9.997954
     94549.8548     2.237818    12.001787