        H             B            I       
      (A/m)          (T)          (A)      
  -------------  -----------  -----------  
        -6.2828     0.000019    -0.002662
         0.7853     0.018876     0.002900
         7.0681     0.048746     0.008698
        10.2095     0.084023     0.014304
        10.9949     0.103365     0.017105
        15.7070     0.148008     0.022941
        17.2777     0.194644     0.028564
        20.4191     0.245287     0.034376
        21.2044     0.297559     0.040027
        24.3458     0.360943     0.046601
        26.7019     0.416680     0.052218
        29.8433     0.474886     0.058018
        32.9847     0.533221     0.063671
        36.1261     0.593882     0.069517
        40.8382     0.652096     0.075179
        46.3356     0.711421     0.080981
        50.2624     0.768540     0.086671
        62.0426     0.872070     0.097032
        69.1108     0.923653     0.102634
        72.2522     0.949951     0.105644
        88.7445     1.053175     0.117123
        95.0273     1.074355     0.119917
       103.6662     1.119774     0.125551
       113.0904     1.164650     0.131361
       120.1585     1.184609     0.134200
       132.7241     1.232498     0.140808
       143.7190     1.269922     0.146414
       149.2165     1.286781     0.149228
       163.3528     1.322787     0.155025
       175.9184     1.355070     0.160697
       185.3426     1.370537     0.163747
       202.6203     1.399309     0.169396
       223.8247     1.426212     0.175211
       233.2489     1.437435     0.178029
       255.2387     1.459910     0.183735
       324.3495     1.500446     0.196004
       404.4552     1.526786     0.207405
       478.2781     1.541461     0.216054
       556.8131     1.553145     0.224708
       675.4010     1.566748     0.236949
       760.2188     1.574116     0.245356
       848.9633     1.580875     0.254008
       968.3365     1.589116     0.265521
      1057.8664     1.594545     0.274175
      1196.8734     1.602279     0.287439
      1315.4612     1.608265     0.298836
      1402.6351     1.612415     0.307267
      1492.9503     1.616571     0.315966
      1613.1089     1.621825     0.327468
      1712.0630     1.625952     0.336861
      1800.0222     1.629672     0.345510
      1923.3221     1.634441     0.357046
      2008.9252     1.637748     0.365518
      2100.0258     1.641185     0.374217
      2242.1742     1.646482     0.387847
      2330.1334     1.649652     0.396403
      3378.5756     1.684712     0.496179
      4430.1592     1.715475     0.598269
      5455.0410     1.742429     0.698139
      6442.2259     1.766312     0.794744
      7491.4535     1.789908     0.897535
      8495.1307     1.811047     0.996520
      9506.6615     1.831065     1.096481
     10534.6846     1.850265     1.197726
     11542.2887     1.868003     1.297502
     12540.4685     1.884875     1.396571
     13577.1305     1.901431     1.499571
     14532.9014     1.916097     1.595231
     15535.0080     1.930828     1.695107
     16557.5336     1.945105     1.797127
     17557.2842     1.958506     1.897092
     18525.6207     1.970964     1.994506
     23540.0803     2.028137     2.499460
     28406.1088     2.073363     3.001665
     33037.3176     2.107579     3.496244
     37509.8857     2.132350     3.998069
     46120.4629     2.162152     4.999092
     54930.5190     2.180716     6.002122
     63587.4318     2.195443     6.994215
     71945.1263     2.208274     7.997114
     79221.3939     2.218858     8.998413
     84960.7315     2.226878     9.997593
     93207.6917     2.238412    12.001440
