        H             B            I       
      (A/m)          (T)          (A)      
  -------------  -----------  -----------  
         3.9267     0.000212    -0.002622
         7.8535     0.028083     0.002932
        10.9949     0.061175     0.008726
        14.9216     0.096519     0.014342
        14.9216     0.116348     0.017151
        18.0630     0.160948     0.022972
        18.8484     0.207524     0.028602
        21.9898     0.257658     0.034391
        24.3458     0.309495     0.040072
        24.3458     0.370659     0.046629
        29.0579     0.422722     0.052250
        29.8433     0.479068     0.058057
        31.4140     0.533759     0.063706
        34.5554     0.591285     0.069541
        37.6968     0.646834     0.075189
        41.6235     0.702688     0.081006
        44.7649     0.757220     0.086693
        52.6184     0.856975     0.097044
        58.1159     0.906582     0.102644
        58.1159     0.931912     0.105658
        69.8961     1.031898     0.117148
        74.6082     1.052187     0.119934
        79.3203     1.096127     0.125554
        87.1738     1.139660     0.131369
        91.8859     1.159316     0.134229
       101.3101     1.206661     0.140820
       108.3783     1.243743     0.146442
       115.4464     1.260557     0.149257
       126.4413     1.296932     0.155058
       137.4362     1.330104     0.160705
       142.9337     1.346030     0.163761
       159.4260     1.376673     0.169428
       175.9184     1.405600     0.175256
       182.9865     1.417536     0.178078
       204.1910     1.442412     0.183773
       256.8094     1.489504     0.196010
       319.6374     1.522962     0.207426
       377.7533     1.542435     0.216073
       446.0788     1.557970     0.224712
       556.8131     1.575268     0.236979
       639.2749     1.584430     0.245381
       726.4487     1.592424     0.254042
       845.8219     1.601900     0.265551
       938.4932     1.607922     0.274189
      1078.2855     1.616569     0.287439
      1201.5855     1.623200     0.298840
      1292.6861     1.627658     0.307296
      1384.5720     1.632015     0.315985
      1509.4427     1.637653     0.327464
      1611.5382     1.641974     0.336874
      1704.2095     1.645854     0.345536
      1830.6508     1.650791     0.357067
      1922.5368     1.654235     0.365538
      2015.2080     1.657638     0.374268
      2163.6392     1.663045     0.387880
      2257.0958     1.666247     0.396449
      3351.8737     1.701697     0.496211
      4450.5783     1.732728     0.598305
      5520.2250     1.759975     0.698164
      6546.6774     1.783864     0.794797
      7639.0993     1.807836     0.897581
      8682.0440     1.829271     0.996560
      9732.8423     1.849468     1.096522
     10795.4208     1.868740     1.197769
     11836.7949     1.886758     1.297547
     12864.8180     1.903788     1.396621
     13932.1086     1.920660     1.499633
     14917.7229     1.935596     1.595293
     15945.7460     1.950453     1.695155
     16992.6175     1.964859     1.797187
     18015.9285     1.978348     1.897150
     19004.6842     1.990808     1.994570
     24107.8883     2.048673     2.499519
     29043.8130     2.094461     3.001739
     33728.4256     2.129198     3.496334
     38233.9784     2.154636     3.998175
     46845.3410     2.185070     4.999227
     55644.4021     2.203741     6.002246
     64291.1054     2.218458     6.994389
     72642.5171     2.231358     7.997269
     79914.0726     2.241999     8.998585
     85654.9809     2.250119     9.997750
     93901.9411     2.261567    12.001591