        H             B            I       
      (A/m)          (T)          (A)      
  -------------  -----------  -----------  
      -142.9337    -1.372330    -0.002728
      -114.6611    -1.340786     0.005666
       -91.1006    -1.300100     0.014291
       -65.9694    -1.233792     0.025768
       -51.8331    -1.177101     0.034399
       -22.7751    -1.000318     0.055259
       -14.1363    -0.921442     0.063728
        -3.9267    -0.830594     0.072421
        16.4923    -0.490685     0.097098
        18.0630    -0.356883     0.105708
        21.2044    -0.144432     0.117192
        21.2044    -0.036728     0.122818
        24.3458     0.090213     0.128644
        25.9165     0.203407     0.134299
        29.0579     0.325470     0.140902
        34.5554     0.420151     0.146528
        34.5554     0.461900     0.149305
        37.6968     0.552076     0.155114
        43.9796     0.633321     0.160789
        46.3356     0.671729     0.163852
        49.4770     0.745411     0.169510
        55.7598     0.815434     0.175328
        60.4719     0.844858     0.178162
        65.9694     0.906643     0.183862
        84.8178     1.030459     0.196110
       103.6662     1.126483     0.207510
       122.5146     1.188544     0.216147
       143.7190     1.244178     0.224795
       183.7719     1.312948     0.237059
       217.5419     1.350822     0.245472
       258.3801     1.383380     0.254107
       329.8470     1.418279     0.265632
       394.2457     1.437675     0.274296
       512.8335     1.459951     0.287543
       629.0653     1.473979     0.298950
       716.2392     1.482303     0.307389
       809.6958     1.489827     0.316056
       935.3518     1.498574     0.327554
      1039.0180     1.504748     0.336957
      1135.6161     1.509813     0.345608
      1263.6281     1.516421     0.357160
      1357.8701     1.520797     0.365631
      1454.4682     1.525236     0.374332
      1608.3968     1.531893     0.387951
      1701.8534     1.535747     0.396528
      2828.8306     1.576043     0.496287
      3951.8811     1.609856     0.598370
      5047.4443     1.638909     0.698256
      6099.0279     1.664319     0.794860
      7214.2249     1.689301     0.897661
      8274.4474     1.711563     0.996634
      9341.7380     1.732621     1.096591
     10421.5942     1.752623     1.197832
     11474.7486     1.771284     1.297642
     12516.9080     1.788813     1.396713
     13598.3349     1.806019     1.499713
     14591.0173     1.821195     1.595374
     15628.4646     1.836357     1.695228
     16687.1164     1.851181     1.797268
     17717.4956     1.865053     1.897221
     18714.1047     1.877898     1.994639
     23858.1470     1.936915     2.499591
     28821.5589     1.983515     3.001812
     33526.5907     2.019076     3.496404
     38050.2065     2.044985     3.998219
     46678.0614     2.075869     4.999244
     55486.5468     2.094704     6.002262
     64141.8889     2.109491     6.994374
     72489.3739     2.122386     7.997259
     79825.3280     2.133027     8.998552
     85621.2109     2.141242     9.997730
     93870.5271     2.152467    12.001566
     86883.2683     2.142850     9.997384
     81768.2839     2.135790     8.998158
     74740.9723     2.125624     7.996795
     66384.8485     2.113170     6.993899
     57694.1656     2.098844     6.001796
     48810.2866     2.081236     4.998785
     40136.8814     2.054418     3.997818
     31110.0688     2.002042     3.001437
     21136.9094     1.907536     1.994369
     16048.6268     1.842737     1.499481
     10771.0750     1.759382     0.996457
      9732.0570     1.740511     0.897487
      8640.4205     1.719569     0.794721
      7611.6120     1.698711     0.698109
      6537.2532     1.675484     0.598253
      5434.6219     1.649626     0.496181
      4349.2682     1.622327     0.396426
      3290.6164     1.592693     0.298844
      2156.5710     1.556891     0.196019
      2025.4176     1.552311     0.183763
      1933.5317     1.549116     0.175253
      1807.8757     1.544648     0.163770
      1712.8483     1.541103     0.155067
      1617.8210     1.537591     0.146441
      1483.5261     1.532539     0.134239
      1389.2841     1.528824     0.125561
      1295.0421     1.525061     0.117133
      1166.2447     1.519695     0.105666
      1072.0027     1.515653     0.097055
       924.3569     1.508541     0.083862
       795.5595     1.501879     0.072376
       698.9615     1.496577     0.063704
       605.5048     1.490742     0.055259
       479.8488     1.481377     0.043854
       379.3240     1.471729     0.034420
       296.8623     1.460286     0.025799
       205.7617     1.436642     0.014359
       157.0700     1.411500     0.005732
       120.9439     1.380247    -0.002624
        95.8127     1.341844    -0.011051
        75.3936     1.295129    -0.019735
        51.8331     1.220760    -0.031290
        40.0528     1.158129    -0.039933
        31.4140     1.114654    -0.045590
        27.4872     1.084611    -0.049377
        19.6337     1.034453    -0.055056
        13.3509     0.979643    -0.060883
        10.9949     0.953714    -0.063688
         3.9267     0.895069    -0.069343
        -3.9267     0.794518    -0.078025
       -13.3509     0.643014    -0.089476
       -20.4191     0.434834    -0.102891
       -22.7751     0.284997    -0.111578
       -25.9165     0.055215    -0.123084
       -28.2726    -0.129603    -0.131554
       -33.7700    -0.294534    -0.140175
       -41.6235    -0.504862    -0.152399
       -48.6917    -0.630035    -0.161022
       -55.7598    -0.743991    -0.169672
       -68.3254    -0.879237    -0.181087
       -70.6815    -0.905172    -0.183877
       -79.3203    -0.959612    -0.189493
       -94.2420    -1.049474    -0.199112
       -99.7394    -1.071152    -0.201975
      -144.5044    -1.226393    -0.222188
      -215.1859    -1.340062    -0.243065
      -393.4603    -1.432987    -0.271687
      -722.5220    -1.480266    -0.305139
     -1145.0403    -1.508834    -0.343071
     -1463.8924    -1.524506    -0.371580
     -1811.0171    -1.539133    -0.402545
     -2935.6382    -1.578746    -0.502706
     -4068.1129    -1.612039    -0.604738
     -5162.8908    -1.640903    -0.704689
     -6211.3330    -1.666129    -0.801043
     -7322.6032    -1.690987    -0.904191
     -8385.1817    -1.713215    -1.003260
    -18875.8868    -1.879894    -2.001513
    -38147.5899    -2.045485    -4.005658
    -55572.9353    -2.094892    -6.009691
    -72575.7624    -2.122571    -8.005790
    -85680.1121    -2.141209   -10.006275
    -93917.6481    -2.152467   -12.010498
    -86942.9549    -2.143028   -10.006148
    -74844.6385    -2.125802    -8.005656
    -57811.1827    -2.098754    -6.009581
    -40257.0400    -2.054774    -4.005595
    -21249.2144    -1.908016    -2.001500
    -10874.7412    -1.760189    -1.003278
     -8726.8090    -1.720057    -0.801048
     -6625.9978    -1.675754    -0.604746
     -4427.8032    -1.622569    -0.402537
     -3366.0100    -1.593350    -0.305121
     -2233.5353    -1.558078    -0.201953
     -2099.2405    -1.553498    -0.189459
     -2007.3545    -1.550429    -0.181057
     -1882.4839    -1.545896    -0.169630
     -1789.0273    -1.542526    -0.160963
     -1693.2146    -1.539099    -0.152339
     -1555.7783    -1.534077    -0.140114
     -1462.3217    -1.530442    -0.131487
     -1368.0797    -1.526818    -0.123021
     -1238.4969    -1.521567    -0.111517
     -1141.1135    -1.517522    -0.102825
      -988.7556    -1.510731    -0.089411
      -861.5289    -1.504406    -0.078003
      -763.3602    -1.499210    -0.069297
      -668.3328    -1.493728    -0.060824
      -538.7501    -1.485095    -0.049314
      -436.6546    -1.476631    -0.039889
      -345.5540    -1.466801    -0.031231
      -244.2438    -1.447146    -0.019692
      -186.1279    -1.425448    -0.010975
      -144.5044    -1.397663    -0.002555