        H             B            I       
      (A/m)          (T)          (A)      
  -------------  -----------  -----------  
         3.1414     0.000007    -0.002710
         9.4242     0.027326     0.002875
        12.5656     0.059549     0.008670
        15.7070     0.093453     0.014286
        17.2777     0.112001     0.017095
        18.0630     0.154346     0.022924
        21.2044     0.198667     0.028553
        21.9898     0.247274     0.034368
        22.7751     0.297275     0.040020
        24.3458     0.355703     0.046579
        25.9165     0.406551     0.052209
        28.2726     0.461449     0.058018
        29.8433     0.514569     0.063656
        32.1993     0.570805     0.069497
        34.5554     0.625390     0.075169
        36.1261     0.680563     0.080994
        37.6968     0.734143     0.086676
        45.5503     0.832300     0.096991
        48.6917     0.881257     0.102596
        51.0477     0.906341     0.105604
        60.4719     1.005594     0.117095
        62.8280     1.026136     0.119884
        66.7547     1.070000     0.125514
        73.8229     1.113851     0.131329
        76.9643     1.133482     0.134178
        83.2471     1.180759     0.140780
        91.1006     1.218289     0.146395
        94.2420     1.235438     0.149201
       102.8808     1.272253     0.155006
       111.5197     1.306100     0.160678
       117.0171     1.322448     0.163719
       127.2267     1.353621     0.169367
       141.3630     1.383703     0.175200
       148.4311     1.396383     0.178032
       164.1381     1.422714     0.183735
       207.3324     1.473855     0.195956
       259.9508     1.511569     0.207385
       310.2132     1.534004     0.216044
       366.7584     1.552159     0.224686
       466.4979     1.572448     0.236943
       536.3940     1.583033     0.245352
       615.7144     1.592258     0.254002
       728.8048     1.602954     0.265515
       812.0519     1.609814     0.274169
       947.9174     1.619270     0.287396
      1064.1492     1.626446     0.298803
      1151.3231     1.631355     0.307253
      1239.2823     1.636085     0.315941
      1358.6555     1.642125     0.327431
      1456.8242     1.646711     0.336826
      1546.3541     1.650795     0.345489
      1668.0834     1.656125     0.357037
      1756.8279     1.659780     0.365523
      1847.1432     1.663433     0.374226
      1990.0768     1.669162     0.387823
      2080.3921     1.672511     0.396395
      3150.0388     1.709371     0.496178
      4221.2561     1.741204     0.598279
      5272.0544     1.768781     0.698129
      6282.0145     1.793164     0.794771
      7357.9440     1.817228     0.897558
      8384.3964     1.838728     0.996549
      9419.4877     1.859142     1.096507
     10472.6420     1.878677     1.197751
     11500.6651     1.896885     1.297549
     12521.6201     1.913989     1.396644
     13581.0572     1.930887     1.499634
     14555.6765     1.945850     1.595331
     15576.6315     1.960696     1.695175
     16618.0056     1.975141     1.797228
     17635.8192     1.988726     1.897183
     18620.6480     2.001360     1.994614
     23708.9305     2.059441     2.499573
     28629.1482     2.105445     3.001818
     33312.9755     2.140464     3.496460
     37866.4346     2.165946     3.998310
     46636.4379     2.196530     4.999400
     55523.4582     2.215218     6.002447
     64208.6437     2.230065     6.994626
     72583.6159     2.243038     7.997496
     79861.4541     2.253587     8.998884
     85600.7918     2.261662     9.998073
     93848.5373     2.272882    12.001912
