        H             B            I       
      (A/m)          (T)          (A)      
  -------------  -----------  -----------  
        -7.8535     0.000016    -0.002630
        -0.7853     0.019010     0.002948
         3.9267     0.048009     0.008736
         7.0681     0.082529     0.014344
         7.8535     0.101683     0.017148
        10.9949     0.144464     0.022989
        13.3509     0.189731     0.028600
        15.7070     0.238719     0.034419
        18.0630     0.289086     0.040063
        19.6337     0.349185     0.046646
        19.6337     0.400943     0.052258
        24.3458     0.456549     0.058062
        25.9165     0.510908     0.063730
        26.7019     0.567324     0.069560
        30.6286     0.621914     0.075203
        35.3407     0.677817     0.081019
        39.2675     0.731292     0.086713
        44.7649     0.829505     0.097051
        49.4770     0.878354     0.102660
        52.6184     0.903481     0.105657
        64.3987     1.002718     0.117154
        68.3254     1.023219     0.119944
        74.6082     1.066806     0.125570
        80.1057     1.110444     0.131377
        85.6031     1.130365     0.134235
        95.0273     1.177917     0.140825
       104.4515     1.215356     0.146458
       108.3783     1.232324     0.149254
       118.5878     1.269184     0.155071
       130.3681     1.302776     0.160739
       137.4362     1.319361     0.163798
       150.0018     1.350508     0.169433
       165.7088     1.380156     0.175257
       174.3477     1.392795     0.178083
       190.8400     1.418886     0.183792
       240.3171     1.468605     0.196044
       298.4330     1.504500     0.207446
       353.4075     1.525384     0.216101
       417.0208     1.542144     0.224747
       526.1845     1.560648     0.236997
       603.9341     1.570251     0.245400
       690.3226     1.578742     0.254054
       808.9105     1.588478     0.265563
       896.8697     1.594710     0.274227
      1038.2327     1.603567     0.287453
      1160.7473     1.610340     0.298856
      1250.2772     1.614884     0.307306
      1342.9485     1.619406     0.315987
      1468.6045     1.625120     0.327496
      1568.3439     1.629502     0.336906
      1661.0152     1.633382     0.345548
      1785.8859     1.638357     0.357087
      1876.9865     1.641923     0.365565
      1971.2285     1.645429     0.374280
      2118.0889     1.650938     0.387882
      2210.7602     1.654192     0.396463
      3304.7527     1.689915     0.496233
      4394.8185     1.721217     0.598314
      5463.6798     1.748405     0.698187
      6487.7762     1.772369     0.794801
      7577.8420     1.796118     0.897590
      8618.4307     1.817600     0.996579
      9666.8729     1.837801     1.096537
     10727.0954     1.857259     1.197779
     11767.6841     1.875328     1.297566
     12796.4926     1.892306     1.396637
     13862.2125     1.909041     1.499643
     14846.2560     1.923947     1.595328
     15872.7084     1.938723     1.695181
     16920.3653     1.953267     1.797220
     17942.8910     1.966826     1.897181
     18933.2173     1.979561     1.994602
     24041.9189     2.037393     2.499544
     28982.5557     2.083154     3.001774
     33675.8071     2.118048     3.496388
     38193.1402     2.143546     3.998211
     46820.2098     2.174094     4.999256
     55623.9830     2.192851     6.002285
     64269.9010     2.207562     6.994412
     72615.8152     2.220423     7.997288
     79882.6586     2.230979     8.998609
     85695.8191     2.239182     9.997786
     93983.6175     2.250583    12.001619
